# wavelength (microns), transmission, emissivity
4.0000,0.2075,0.000
4.0037,0.2048,0.000
4.0073,0.2021,0.000
4.0110,0.1994,0.000
4.0147,0.1963,0.000
4.0183,0.1932,0.000
4.0220,0.1902,0.000
4.0257,0.1871,0.000
4.0293,0.1841,0.000
4.0330,0.1810,0.000
4.0367,0.1779,0.000
4.0403,0.1749,0.000
4.0440,0.1718,0.000
4.0477,0.1687,0.000
4.0514,0.1657,0.000
4.0550,0.1626,0.000
4.0587,0.1596,0.000
4.0624,0.1565,0.000
4.0660,0.1537,0.000
4.0697,0.1518,0.000
4.0734,0.1499,0.000
4.0770,0.1479,0.000
4.0807,0.1460,0.000
4.0844,0.1441,0.000
4.0880,0.1421,0.000
4.0917,0.1402,0.000
4.0954,0.1382,0.000
4.0990,0.1363,0.000
4.1027,0.1344,0.000
4.1064,0.1324,0.000
4.1100,0.1305,0.000
4.1137,0.1285,0.000
4.1174,0.1266,0.000
4.1210,0.1247,0.000
4.1247,0.1227,0.000
4.1284,0.1208,0.000
4.1320,0.1189,0.000
4.1357,0.1169,0.000
4.1394,0.1150,0.000
4.1430,0.1130,0.000
4.1467,0.1118,0.000
4.1504,0.1114,0.000
4.1541,0.1110,0.000
4.1577,0.1105,0.000
4.1614,0.1101,0.000
4.1651,0.1097,0.000
4.1687,0.1092,0.000
4.1724,0.1088,0.000
4.1761,0.1084,0.000
4.1797,0.1079,0.000
4.1834,0.1075,0.000
4.1871,0.1071,0.000
4.1907,0.1066,0.000
4.1944,0.1062,0.000
4.1981,0.1058,0.000
4.2017,0.1052,0.000
4.2054,0.1045,0.000
4.2091,0.1038,0.000
4.2127,0.1031,0.000
4.2164,0.1024,0.000
4.2201,0.1017,0.000
4.2237,0.1010,0.000
4.2274,0.1003,0.000
4.2311,0.0996,0.000
4.2347,0.0989,0.000
4.2384,0.0982,0.000
4.2421,0.0975,0.000
4.2457,0.0968,0.000
4.2494,0.0961,0.000
4.2531,0.0955,0.000
4.2568,0.0948,0.000
4.2604,0.0941,0.000
4.2641,0.0934,0.000
4.2678,0.0927,0.000
4.2714,0.0920,0.000
4.2751,0.0913,0.000
4.2788,0.0906,0.000
4.2824,0.0901,0.000
4.2861,0.0900,0.000
4.2898,0.0898,0.000
4.2934,0.0897,0.000
4.2971,0.0895,0.000
4.3008,0.0894,0.000
4.3044,0.0892,0.000
4.3081,0.0891,0.000
4.3118,0.0890,0.000
4.3154,0.0888,0.000
4.3191,0.0887,0.000
4.3228,0.0885,0.000
4.3264,0.0884,0.000
4.3301,0.0882,0.000
4.3338,0.0881,0.000
4.3374,0.0879,0.000
4.3411,0.0878,0.000
4.3448,0.0877,0.000
4.3484,0.0875,0.000
4.3521,0.0874,0.000
4.3558,0.0872,0.000
4.3595,0.0871,0.000
4.3631,0.0869,0.000
4.3668,0.0868,0.000
4.3705,0.0866,0.000
4.3741,0.0865,0.000
4.3778,0.0864,0.000
4.3815,0.0862,0.000
4.3851,0.0861,0.000
4.3888,0.0860,0.000
4.3925,0.0862,0.000
4.3961,0.0865,0.000
4.3998,0.0867,0.000
4.4035,0.0870,0.000
4.4071,0.0872,0.000
4.4108,0.0875,0.000
4.4145,0.0877,0.000
4.4181,0.0880,0.000
4.4218,0.0882,0.000
4.4255,0.0884,0.000
4.4291,0.0887,0.000
4.4328,0.0889,0.000
4.4365,0.0892,0.000
4.4401,0.0894,0.000
4.4438,0.0897,0.000
4.4475,0.0899,0.000
4.4512,0.0902,0.000
4.4548,0.0904,0.000
4.4585,0.0907,0.000
4.4622,0.0909,0.000
4.4658,0.0911,0.000
4.4695,0.0914,0.000
4.4732,0.0916,0.000
4.4768,0.0919,0.000
4.4805,0.0921,0.000
4.4842,0.0925,0.000
4.4878,0.0932,0.000
4.4915,0.0939,0.000
4.4952,0.0946,0.000
4.4988,0.0953,0.000
4.5025,0.0959,0.000
4.5062,0.0966,0.000
4.5098,0.0973,0.000
4.5135,0.0980,0.000
4.5172,0.0987,0.000
4.5208,0.0994,0.000
4.5245,0.1001,0.000
4.5282,0.1007,0.000
4.5318,0.1014,0.000
4.5355,0.1021,0.000
4.5392,0.1028,0.000
4.5428,0.1035,0.000
4.5465,0.1042,0.000
4.5502,0.1049,0.000
4.5539,0.1056,0.000
4.5575,0.1062,0.000
4.5612,0.1069,0.000
4.5649,0.1077,0.000
4.5685,0.1086,0.000
4.5722,0.1095,0.000
4.5759,0.1103,0.000
4.5795,0.1112,0.000
4.5832,0.1120,0.000
4.5869,0.1129,0.000
4.5905,0.1137,0.000
4.5942,0.1146,0.000
4.5979,0.1154,0.000
4.6015,0.1163,0.000
4.6052,0.1172,0.000
4.6089,0.1180,0.000
4.6125,0.1189,0.000
4.6162,0.1197,0.000
4.6199,0.1206,0.000
4.6235,0.1214,0.000
4.6272,0.1223,0.000
4.6309,0.1231,0.000
4.6345,0.1240,0.000
4.6382,0.1248,0.000
4.6419,0.1257,0.000
4.6455,0.1266,0.000
4.6492,0.1274,0.000
4.6529,0.1283,0.000
4.6566,0.1291,0.000
4.6602,0.1300,0.000
4.6639,0.1308,0.000
4.6676,0.1317,0.000
4.6712,0.1325,0.000
4.6749,0.1334,0.000
4.6786,0.1343,0.000
4.6822,0.1351,0.000
4.6859,0.1360,0.000
4.6896,0.1368,0.000
4.6932,0.1377,0.000
4.6969,0.1385,0.000
4.7006,0.1400,0.000
4.7042,0.1418,0.000
4.7079,0.1435,0.000
4.7116,0.1453,0.000
4.7152,0.1470,0.000
4.7189,0.1488,0.000
4.7226,0.1505,0.000
4.7262,0.1523,0.000
4.7299,0.1540,0.000
4.7336,0.1558,0.000
4.7372,0.1575,0.000
4.7409,0.1593,0.000
4.7446,0.1611,0.000
4.7482,0.1628,0.000
4.7519,0.1646,0.000
4.7556,0.1663,0.000
4.7593,0.1681,0.000
4.7629,0.1698,0.000
4.7666,0.1716,0.000
4.7703,0.1733,0.000
4.7739,0.1751,0.000
4.7776,0.1768,0.000
4.7813,0.1786,0.000
4.7849,0.1810,0.000
4.7886,0.1836,0.000
4.7923,0.1862,0.000
4.7959,0.1888,0.000
4.7996,0.1913,0.000
4.8033,0.1939,0.000
4.8069,0.1965,0.000
4.8106,0.1991,0.000
4.8143,0.2017,0.000
4.8179,0.2043,0.000
4.8216,0.2068,0.000
4.8253,0.2094,0.000
4.8289,0.2120,0.000
4.8326,0.2146,0.000
4.8363,0.2172,0.000
4.8399,0.2205,0.000
4.8436,0.2238,0.000
4.8473,0.2271,0.000
4.8510,0.2304,0.000
4.8546,0.2337,0.000
4.8583,0.2370,0.000
4.8620,0.2403,0.000
4.8656,0.2436,0.000
4.8693,0.2469,0.000
4.8730,0.2502,0.000
4.8766,0.2536,0.000
4.8803,0.2569,0.000
4.8840,0.2602,0.000
4.8876,0.2635,0.000
4.8913,0.2663,0.000
4.8950,0.2684,0.000
4.8986,0.2705,0.000
4.9023,0.2726,0.000
4.9060,0.2747,0.000
4.9096,0.2768,0.000
4.9133,0.2789,0.000
4.9170,0.2810,0.000
4.9206,0.2831,0.000
4.9243,0.2852,0.000
4.9280,0.2872,0.000
4.9316,0.2893,0.000
4.9353,0.2914,0.000
4.9390,0.2935,0.000
4.9426,0.2956,0.000
4.9463,0.2977,0.000
4.9500,0.2998,0.000
4.9537,0.3019,0.000
4.9573,0.3040,0.000
4.9610,0.3061,0.000
4.9647,0.3082,0.000
4.9683,0.3103,0.000
4.9720,0.3123,0.000
4.9757,0.3153,0.000
4.9793,0.3193,0.000
4.9830,0.3233,0.000
4.9867,0.3273,0.000
4.9903,0.3312,0.000
4.9940,0.3352,0.000
4.9977,0.3392,0.000
5.0013,0.3432,0.000
5.0050,0.3472,0.000
5.0087,0.3512,0.000
5.0123,0.3552,0.000
5.0160,0.3592,0.000
5.0197,0.3631,0.000
5.0233,0.3671,0.000
5.0270,0.3711,0.000
5.0307,0.3751,0.000
5.0343,0.3791,0.000
5.0380,0.3831,0.000
5.0417,0.3871,0.000
5.0453,0.3911,0.000
5.0490,0.3950,0.000
5.0527,0.3990,0.000
5.0564,0.4024,0.000
5.0600,0.4048,0.000
5.0637,0.4071,0.000
5.0674,0.4095,0.000
5.0710,0.4118,0.000
5.0747,0.4142,0.000
5.0784,0.4165,0.000
5.0820,0.4188,0.000
5.0857,0.4212,0.000
5.0894,0.4235,0.000
5.0930,0.4259,0.000
5.0967,0.4282,0.000
5.1004,0.4306,0.000
5.1040,0.4329,0.000
5.1077,0.4353,0.000
5.1114,0.4376,0.000
5.1150,0.4400,0.000
5.1187,0.4423,0.000
5.1224,0.4447,0.000
5.1260,0.4470,0.000
5.1297,0.4494,0.000
5.1334,0.4517,0.000
5.1370,0.4541,0.000
5.1407,0.4564,0.000
5.1444,0.4587,0.000
5.1480,0.4611,0.000
5.1517,0.4634,0.000
5.1554,0.4658,0.000
5.1591,0.4681,0.000
5.1627,0.4705,0.000
5.1664,0.4743,0.000
5.1701,0.4789,0.000
5.1737,0.4835,0.000
5.1774,0.4881,0.000
5.1811,0.4927,0.000
5.1847,0.4973,0.000
5.1884,0.5019,0.000
5.1921,0.5065,0.000
5.1957,0.5111,0.000
5.1994,0.5157,0.000
5.2031,0.5203,0.000
5.2067,0.5248,0.000
5.2104,0.5292,0.000
5.2141,0.5335,0.000
5.2177,0.5379,0.000
5.2214,0.5423,0.000
5.2251,0.5467,0.000
5.2287,0.5510,0.000
5.2324,0.5554,0.000
5.2361,0.5598,0.000
5.2397,0.5642,0.000
5.2434,0.5685,0.000
5.2471,0.5712,0.000
5.2508,0.5734,0.000
5.2544,0.5757,0.000
5.2581,0.5780,0.000
5.2618,0.5803,0.000
5.2654,0.5826,0.000
5.2691,0.5849,0.000
5.2728,0.5872,0.000
5.2764,0.5895,0.000
5.2801,0.5918,0.000
5.2838,0.5941,0.000
5.2874,0.5964,0.000
5.2911,0.5987,0.000
5.2948,0.6010,0.000
5.2984,0.6032,0.000
5.3021,0.6044,0.000
5.3058,0.6056,0.000
5.3094,0.6068,0.000
5.3131,0.6080,0.000
5.3168,0.6092,0.000
5.3204,0.6104,0.000
5.3241,0.6116,0.000
5.3278,0.6128,0.000
5.3314,0.6140,0.000
5.3351,0.6152,0.000
5.3388,0.6164,0.000
5.3424,0.6175,0.000
5.3461,0.6187,0.000
5.3498,0.6199,0.000
5.3535,0.6211,0.000
5.3571,0.6223,0.000
5.3608,0.6235,0.000
5.3645,0.6247,0.000
5.3681,0.6259,0.000
5.3718,0.6271,0.000
5.3755,0.6283,0.000
5.3791,0.6295,0.000
5.3828,0.6312,0.000
5.3865,0.6331,0.000
5.3901,0.6350,0.000
5.3938,0.6369,0.000
5.3975,0.6387,0.000
5.4011,0.6406,0.000
5.4048,0.6425,0.000
5.4085,0.6443,0.000
5.4121,0.6462,0.000
5.4158,0.6481,0.000
5.4195,0.6500,0.000
5.4231,0.6508,0.000
5.4268,0.6515,0.000
5.4305,0.6522,0.000
5.4341,0.6529,0.000
5.4378,0.6536,0.000
5.4415,0.6543,0.000
5.4451,0.6550,0.000
5.4488,0.6557,0.000
5.4525,0.6564,0.000
5.4562,0.6571,0.000
5.4598,0.6578,0.000
5.4635,0.6582,0.000
5.4672,0.6586,0.000
5.4708,0.6590,0.000
5.4745,0.6593,0.000
5.4782,0.6597,0.000
5.4818,0.6601,0.000
5.4855,0.6605,0.000
5.4892,0.6608,0.000
5.4928,0.6612,0.000
5.4965,0.6616,0.000
5.5002,0.6619,0.000
5.5038,0.6623,0.000
5.5075,0.6627,0.000
5.5112,0.6630,0.000
5.5148,0.6634,0.000
5.5185,0.6638,0.000
5.5222,0.6641,0.000
5.5258,0.6645,0.000
5.5295,0.6649,0.000
5.5332,0.6653,0.000
5.5368,0.6656,0.000
5.5405,0.6660,0.000
5.5442,0.6664,0.000
5.5478,0.6667,0.000
5.5515,0.6671,0.000
5.5552,0.6673,0.000
5.5589,0.6675,0.000
5.5625,0.6676,0.000
5.5662,0.6678,0.000
5.5699,0.6680,0.000
5.5735,0.6681,0.000
5.5772,0.6683,0.000
5.5809,0.6685,0.000
5.5845,0.6686,0.000
5.5882,0.6688,0.000
5.5919,0.6689,0.000
5.5955,0.6691,0.000
5.5992,0.6693,0.000
5.6029,0.6694,0.000
5.6065,0.6696,0.000
5.6102,0.6698,0.000
5.6139,0.6699,0.000
5.6175,0.6701,0.000
5.6212,0.6703,0.000
5.6249,0.6704,0.000
5.6285,0.6706,0.000
5.6322,0.6708,0.000
5.6359,0.6709,0.000
5.6395,0.6711,0.000
5.6432,0.6713,0.000
5.6469,0.6714,0.000
5.6506,0.6716,0.000
5.6542,0.6718,0.000
5.6579,0.6719,0.000
5.6616,0.6721,0.000
5.6652,0.6720,0.000
5.6689,0.6720,0.000
5.6726,0.6720,0.000
5.6762,0.6719,0.000
5.6799,0.6719,0.000
5.6836,0.6719,0.000
5.6872,0.6718,0.000
5.6909,0.6718,0.000
5.6946,0.6718,0.000
5.6982,0.6717,0.000
5.7019,0.6717,0.000
5.7056,0.6717,0.000
5.7092,0.6716,0.000
5.7129,0.6716,0.000
5.7166,0.6715,0.000
5.7202,0.6715,0.000
5.7239,0.6715,0.000
5.7276,0.6714,0.000
5.7312,0.6714,0.000
5.7349,0.6714,0.000
5.7386,0.6713,0.000
5.7422,0.6713,0.000
5.7459,0.6713,0.000
5.7496,0.6712,0.000
5.7533,0.6712,0.000
5.7569,0.6712,0.000
5.7606,0.6711,0.000
5.7643,0.6711,0.000
5.7679,0.6711,0.000
5.7716,0.6710,0.000
5.7753,0.6710,0.000
5.7789,0.6710,0.000
5.7826,0.6709,0.000
5.7863,0.6709,0.000
5.7899,0.6708,0.000
5.7936,0.6708,0.000
5.7973,0.6708,0.000
5.8009,0.6707,0.000
5.8046,0.6707,0.000
5.8083,0.6707,0.000
5.8119,0.6707,0.000
5.8156,0.6708,0.000
5.8193,0.6709,0.000
5.8229,0.6710,0.000
5.8266,0.6711,0.000
5.8303,0.6712,0.000
5.8339,0.6713,0.000
5.8376,0.6714,0.000
5.8413,0.6715,0.000
5.8449,0.6716,0.000
5.8486,0.6717,0.000
5.8523,0.6718,0.000
5.8560,0.6719,0.000
5.8596,0.6720,0.000
5.8633,0.6721,0.000
5.8670,0.6722,0.000
5.8706,0.6723,0.000
5.8743,0.6724,0.000
5.8780,0.6725,0.000
5.8816,0.6726,0.000
5.8853,0.6727,0.000
5.8890,0.6728,0.000
5.8926,0.6729,0.000
5.8963,0.6730,0.000
5.9000,0.6731,0.000
5.9036,0.6731,0.000
5.9073,0.6732,0.000
5.9110,0.6733,0.000
5.9146,0.6734,0.000
5.9183,0.6735,0.000
5.9220,0.6736,0.000
5.9256,0.6737,0.000
5.9293,0.6738,0.000
5.9330,0.6739,0.000
5.9366,0.6740,0.000
5.9403,0.6741,0.000
5.9440,0.6742,0.000
5.9476,0.6743,0.000
5.9513,0.6744,0.000
5.9550,0.6745,0.000
5.9587,0.6746,0.000
5.9623,0.6747,0.000
5.9660,0.6748,0.000
5.9697,0.6749,0.000
5.9733,0.6750,0.000
5.9770,0.6751,0.000
5.9807,0.6752,0.000
5.9843,0.6753,0.000
5.9880,0.6754,0.000
5.9917,0.6755,0.000
5.9953,0.6756,0.000
5.9990,0.6756,0.000
6.0027,0.6757,0.000
6.0063,0.6758,0.000
6.0100,0.6759,0.000
6.0137,0.6760,0.000
6.0173,0.6761,0.000
6.0210,0.6762,0.000
6.0247,0.6763,0.000
6.0283,0.6763,0.000
6.0320,0.6763,0.000
6.0357,0.6763,0.000
6.0393,0.6763,0.000
6.0430,0.6763,0.000
6.0467,0.6763,0.000
6.0504,0.6763,0.000
6.0540,0.6763,0.000
6.0577,0.6763,0.000
6.0614,0.6763,0.000
6.0650,0.6763,0.000
6.0687,0.6763,0.000
6.0724,0.6763,0.000
6.0760,0.6763,0.000
6.0797,0.6763,0.000
6.0834,0.6763,0.000
6.0870,0.6763,0.000
6.0907,0.6763,0.000
6.0944,0.6763,0.000
6.0980,0.6763,0.000
6.1017,0.6763,0.000
6.1054,0.6763,0.000
6.1090,0.6763,0.000
6.1127,0.6763,0.000
6.1164,0.6763,0.000
6.1200,0.6763,0.000
6.1237,0.6763,0.000
6.1274,0.6763,0.000
6.1310,0.6763,0.000
6.1347,0.6763,0.000
6.1384,0.6763,0.000
6.1420,0.6763,0.000
6.1457,0.6763,0.000
6.1494,0.6763,0.000
6.1531,0.6763,0.000
6.1567,0.6763,0.000
6.1604,0.6763,0.000
6.1641,0.6763,0.000
6.1677,0.6763,0.000
6.1714,0.6763,0.000
6.1751,0.6763,0.000
6.1787,0.6763,0.000
6.1824,0.6763,0.000
6.1861,0.6763,0.000
6.1897,0.6763,0.000
6.1934,0.6763,0.000
6.1971,0.6763,0.000
6.2007,0.6763,0.000
6.2044,0.6763,0.000
6.2081,0.6763,0.000
6.2117,0.6763,0.000
6.2154,0.6763,0.000
6.2191,0.6763,0.000
6.2227,0.6763,0.000
6.2264,0.6763,0.000
6.2301,0.6763,0.000
6.2337,0.6763,0.000
6.2374,0.6763,0.000
6.2411,0.6763,0.000
6.2447,0.6763,0.000
6.2484,0.6763,0.000
6.2521,0.6763,0.000
6.2558,0.6763,0.000
6.2594,0.6763,0.000
6.2631,0.6763,0.000
6.2668,0.6763,0.000
6.2704,0.6763,0.000
6.2741,0.6763,0.000
6.2778,0.6763,0.000
6.2814,0.6763,0.000
6.2851,0.6763,0.000
6.2888,0.6763,0.000
6.2924,0.6763,0.000
6.2961,0.6763,0.000
6.2998,0.6763,0.000
6.3034,0.6763,0.000
6.3071,0.6763,0.000
6.3108,0.6763,0.000
6.3144,0.6763,0.000
6.3181,0.6763,0.000
6.3218,0.6763,0.000
6.3254,0.6763,0.000
6.3291,0.6763,0.000
6.3328,0.6763,0.000
6.3364,0.6763,0.000
6.3401,0.6763,0.000
6.3438,0.6763,0.000
6.3474,0.6764,0.000
6.3511,0.6764,0.000
6.3548,0.6764,0.000
6.3585,0.6765,0.000
6.3621,0.6765,0.000
6.3658,0.6766,0.000
6.3695,0.6766,0.000
6.3731,0.6767,0.000
6.3768,0.6767,0.000
6.3805,0.6768,0.000
6.3841,0.6768,0.000
6.3878,0.6769,0.000
6.3915,0.6769,0.000
6.3951,0.6769,0.000
6.3988,0.6770,0.000
6.4025,0.6770,0.000
6.4061,0.6771,0.000
6.4098,0.6771,0.000
6.4135,0.6772,0.000
6.4171,0.6772,0.000
6.4208,0.6773,0.000
6.4245,0.6773,0.000
6.4281,0.6774,0.000
6.4318,0.6774,0.000
6.4355,0.6774,0.000
6.4391,0.6775,0.000
6.4428,0.6775,0.000
6.4465,0.6776,0.000
6.4502,0.6776,0.000
6.4538,0.6777,0.000
6.4575,0.6777,0.000
6.4612,0.6778,0.000
6.4648,0.6778,0.000
6.4685,0.6779,0.000
6.4722,0.6779,0.000
6.4758,0.6779,0.000
6.4795,0.6780,0.000
6.4832,0.6780,0.000
6.4868,0.6781,0.000
6.4905,0.6781,0.000
6.4942,0.6782,0.000
6.4978,0.6782,0.000
6.5015,0.6783,0.000
6.5052,0.6783,0.000
6.5088,0.6784,0.000
6.5125,0.6784,0.000
6.5162,0.6784,0.000
6.5198,0.6784,0.000
6.5235,0.6785,0.000
6.5272,0.6785,0.000
6.5308,0.6785,0.000
6.5345,0.6785,0.000
6.5382,0.6785,0.000
6.5418,0.6785,0.000
6.5455,0.6786,0.000
6.5492,0.6786,0.000
6.5529,0.6786,0.000
6.5565,0.6786,0.000
6.5602,0.6786,0.000
6.5639,0.6786,0.000
6.5675,0.6787,0.000
6.5712,0.6787,0.000
6.5749,0.6787,0.000
6.5785,0.6787,0.000
6.5822,0.6787,0.000
6.5859,0.6787,0.000
6.5895,0.6787,0.000
6.5932,0.6788,0.000
6.5969,0.6788,0.000
6.6005,0.6788,0.000
6.6042,0.6788,0.000
6.6079,0.6788,0.000
6.6115,0.6788,0.000
6.6152,0.6789,0.000
6.6189,0.6789,0.000
6.6225,0.6789,0.000
6.6262,0.6789,0.000
6.6299,0.6789,0.000
6.6335,0.6789,0.000
6.6372,0.6790,0.000
6.6409,0.6790,0.000
6.6445,0.6790,0.000
6.6482,0.6790,0.000
6.6519,0.6790,0.000
6.6556,0.6790,0.000
6.6592,0.6791,0.000
6.6629,0.6791,0.000
6.6666,0.6791,0.000
6.6702,0.6791,0.000
6.6739,0.6791,0.000
6.6776,0.6791,0.000
6.6812,0.6791,0.000
6.6849,0.6792,0.000
6.6886,0.6792,0.000
6.6922,0.6792,0.000
6.6959,0.6792,0.000
6.6996,0.6792,0.000
6.7032,0.6792,0.000
6.7069,0.6793,0.000
6.7106,0.6793,0.000
6.7142,0.6793,0.000
6.7179,0.6793,0.000
6.7216,0.6793,0.000
6.7252,0.6793,0.000
6.7289,0.6794,0.000
6.7326,0.6794,0.000
6.7362,0.6794,0.000
6.7399,0.6794,0.000
6.7436,0.6794,0.000
6.7472,0.6794,0.000
6.7509,0.6795,0.000
6.7546,0.6795,0.000
6.7583,0.6795,0.000
6.7619,0.6795,0.000
6.7656,0.6795,0.000
6.7693,0.6795,0.000
6.7729,0.6795,0.000
6.7766,0.6796,0.000
6.7803,0.6796,0.000
6.7839,0.6796,0.000
6.7876,0.6796,0.000
6.7913,0.6796,0.000
6.7949,0.6796,0.000
6.7986,0.6797,0.000
6.8023,0.6797,0.000
6.8059,0.6797,0.000
6.8096,0.6797,0.000
6.8133,0.6797,0.000
6.8169,0.6797,0.000
6.8206,0.6798,0.000
6.8243,0.6798,0.000
6.8279,0.6798,0.000
6.8316,0.6798,0.000
6.8353,0.6798,0.000
6.8389,0.6798,0.000
6.8426,0.6799,0.000
6.8463,0.6799,0.000
6.8499,0.6799,0.000
6.8536,0.6799,0.000
6.8573,0.6799,0.000
6.8610,0.6800,0.000
6.8646,0.6800,0.000
6.8683,0.6800,0.000
6.8720,0.6800,0.000
6.8756,0.6800,0.000
6.8793,0.6801,0.000
6.8830,0.6801,0.000
6.8866,0.6801,0.000
6.8903,0.6801,0.000
6.8940,0.6801,0.000
6.8976,0.6802,0.000
6.9013,0.6802,0.000
6.9050,0.6802,0.000
6.9086,0.6802,0.000
6.9123,0.6802,0.000
6.9160,0.6803,0.000
6.9196,0.6803,0.000
6.9233,0.6803,0.000
6.9270,0.6803,0.000
6.9306,0.6803,0.000
6.9343,0.6804,0.000
6.9380,0.6804,0.000
6.9416,0.6804,0.000
6.9453,0.6804,0.000
6.9490,0.6804,0.000
6.9527,0.6805,0.000
6.9563,0.6805,0.000
6.9600,0.6805,0.000
6.9637,0.6805,0.000
6.9673,0.6805,0.000
6.9710,0.6806,0.000
6.9747,0.6806,0.000
6.9783,0.6806,0.000
6.9820,0.6806,0.000
6.9857,0.6806,0.000
6.9893,0.6807,0.000
6.9930,0.6807,0.000
6.9967,0.6807,0.000
7.0003,0.6807,0.000
7.0040,0.6807,0.000
7.0077,0.6808,0.000
7.0113,0.6808,0.000
7.0150,0.6808,0.000
7.0187,0.6808,0.000
7.0223,0.6808,0.000
7.0260,0.6809,0.000
7.0297,0.6809,0.000
7.0333,0.6809,0.000
7.0370,0.6809,0.000
7.0407,0.6809,0.000
7.0443,0.6810,0.000
7.0480,0.6810,0.000
7.0517,0.6810,0.000
7.0554,0.6810,0.000
7.0590,0.6810,0.000
7.0627,0.6811,0.000
7.0664,0.6811,0.000
7.0700,0.6811,0.000
7.0737,0.6811,0.000
7.0774,0.6811,0.000
7.0810,0.6812,0.000
7.0847,0.6812,0.000
7.0884,0.6812,0.000
7.0920,0.6812,0.000
7.0957,0.6812,0.000
7.0994,0.6813,0.000
7.1030,0.6813,0.000
7.1067,0.6813,0.000
7.1104,0.6813,0.000
7.1140,0.6813,0.000
7.1177,0.6814,0.000
7.1214,0.6814,0.000
7.1250,0.6814,0.000
7.1287,0.6814,0.000
7.1324,0.6814,0.000
7.1360,0.6815,0.000
7.1397,0.6815,0.000
7.1434,0.6815,0.000
7.1470,0.6815,0.000
7.1507,0.6815,0.000
7.1544,0.6816,0.000
7.1581,0.6816,0.000
7.1617,0.6816,0.000
7.1654,0.6816,0.000
7.1691,0.6816,0.000
7.1727,0.6817,0.000
7.1764,0.6817,0.000
7.1801,0.6817,0.000
7.1837,0.6817,0.000
7.1874,0.6817,0.000
7.1911,0.6818,0.000
7.1947,0.6818,0.000
7.1984,0.6818,0.000
7.2021,0.6818,0.000
7.2057,0.6818,0.000
7.2094,0.6819,0.000
7.2131,0.6819,0.000
7.2167,0.6819,0.000
7.2204,0.6819,0.000
7.2241,0.6819,0.000
7.2277,0.6819,0.000
7.2314,0.6819,0.000
7.2351,0.6819,0.000
7.2387,0.6819,0.000
7.2424,0.6819,0.000
7.2461,0.6819,0.000
7.2497,0.6819,0.000
7.2534,0.6819,0.000
7.2571,0.6819,0.000
7.2608,0.6819,0.000
7.2644,0.6819,0.000
7.2681,0.6819,0.000
7.2718,0.6819,0.000
7.2754,0.6819,0.000
7.2791,0.6819,0.000
7.2828,0.6819,0.000
7.2864,0.6819,0.000
7.2901,0.6819,0.000
7.2938,0.6819,0.000
7.2974,0.6819,0.000
7.3011,0.6819,0.000
7.3048,0.6819,0.000
7.3084,0.6819,0.000
7.3121,0.6819,0.000
7.3158,0.6819,0.000
7.3194,0.6819,0.000
7.3231,0.6819,0.000
7.3268,0.6819,0.000
7.3304,0.6819,0.000
7.3341,0.6819,0.000
7.3378,0.6819,0.000
7.3414,0.6819,0.000
7.3451,0.6819,0.000
7.3488,0.6819,0.000
7.3525,0.6819,0.000
7.3561,0.6819,0.000
7.3598,0.6819,0.000
7.3635,0.6819,0.000
7.3671,0.6819,0.000
7.3708,0.6819,0.000
7.3745,0.6819,0.000
7.3781,0.6819,0.000
7.3818,0.6819,0.000
7.3855,0.6819,0.000
7.3891,0.6819,0.000
7.3928,0.6819,0.000
7.3965,0.6819,0.000
7.4001,0.6819,0.000
7.4038,0.6819,0.000
7.4075,0.6819,0.000
7.4111,0.6819,0.000
7.4148,0.6819,0.000
7.4185,0.6819,0.000
7.4221,0.6819,0.000
7.4258,0.6819,0.000
7.4295,0.6819,0.000
7.4331,0.6819,0.000
7.4368,0.6819,0.000
7.4405,0.6819,0.000
7.4441,0.6819,0.000
7.4478,0.6819,0.000
7.4515,0.6819,0.000
7.4552,0.6819,0.000
7.4588,0.6819,0.000
7.4625,0.6819,0.000
7.4662,0.6819,0.000
7.4698,0.6819,0.000
7.4735,0.6819,0.000
7.4772,0.6819,0.000
7.4808,0.6819,0.000
7.4845,0.6819,0.000
7.4882,0.6819,0.000
7.4918,0.6819,0.000
7.4955,0.6819,0.000
7.4992,0.6819,0.000
7.5028,0.6819,0.000
7.5065,0.6819,0.000
7.5102,0.6819,0.000
7.5138,0.6819,0.000
7.5175,0.6819,0.000
7.5212,0.6819,0.000
7.5248,0.6819,0.000
7.5285,0.6819,0.000
7.5322,0.6819,0.000
7.5358,0.6819,0.000
7.5395,0.6819,0.000
7.5432,0.6819,0.000
7.5468,0.6819,0.000
7.5505,0.6819,0.000
7.5542,0.6819,0.000
7.5579,0.6819,0.000
7.5615,0.6819,0.000
7.5652,0.6819,0.000
7.5689,0.6819,0.000
7.5725,0.6819,0.000
7.5762,0.6819,0.000
7.5799,0.6819,0.000
7.5835,0.6819,0.000
7.5872,0.6819,0.000
7.5909,0.6819,0.000
7.5945,0.6819,0.000
7.5982,0.6819,0.000
7.6019,0.6819,0.000
7.6055,0.6819,0.000
7.6092,0.6819,0.000
7.6129,0.6819,0.000
7.6165,0.6819,0.000
7.6202,0.6819,0.000
7.6239,0.6819,0.000
7.6275,0.6819,0.000
7.6312,0.6819,0.000
7.6349,0.6819,0.000
7.6385,0.6819,0.000
7.6422,0.6819,0.000
7.6459,0.6819,0.000
7.6495,0.6819,0.000
7.6532,0.6819,0.000
