# wavelength (microns), transmission, emissivity
0.5000,0.0081,0.0000
0.5010,0.0087,0.0000
0.5020,0.0094,0.0000
0.5030,0.0101,0.0000
0.5040,0.0109,0.0000
0.5050,0.0118,0.0000
0.5060,0.0127,0.0000
0.5070,0.0137,0.0000
0.5080,0.0147,0.0000
0.5090,0.0158,0.0000
0.5100,0.0170,0.0000
0.5110,0.0181,0.0000
0.5120,0.0194,0.0000
0.5130,0.0210,0.0000
0.5140,0.0226,0.0000
0.5150,0.0241,0.0000
0.5160,0.0258,0.0000
0.5170,0.0278,0.0000
0.5180,0.0298,0.0000
0.5190,0.0318,0.0000
0.5200,0.0339,0.0000
0.5210,0.0361,0.0000
0.5220,0.0384,0.0000
0.5230,0.0407,0.0000
0.5240,0.0430,0.0000
0.5250,0.0454,0.0000
0.5260,0.0478,0.0000
0.5270,0.0502,0.0000
0.5280,0.0526,0.0000
0.5290,0.0552,0.0000
0.5300,0.0578,0.0000
0.5310,0.0606,0.0000
0.5320,0.0634,0.0000
0.5330,0.0662,0.0000
0.5340,0.0690,0.0000
0.5350,0.0720,0.0000
0.5360,0.0752,0.0000
0.5370,0.0782,0.0000
0.5380,0.0813,0.0000
0.5390,0.0846,0.0000
0.5400,0.0880,0.0000
0.5410,0.0914,0.0000
0.5420,0.0948,0.0000
0.5430,0.0983,0.0000
0.5440,0.1019,0.0000
0.5450,0.1056,0.0000
0.5460,0.1094,0.0000
0.5470,0.1133,0.0000
0.5480,0.1172,0.0000
0.5490,0.1211,0.0000
0.5500,0.1250,0.0000
0.5510,0.1291,0.0000
0.5520,0.1333,0.0000
0.5530,0.1375,0.0000
0.5540,0.1418,0.0000
0.5550,0.1461,0.0000
0.5560,0.1503,0.0000
0.5570,0.1547,0.0000
0.5580,0.1591,0.0000
0.5590,0.1634,0.0000
0.5600,0.1678,0.0000
0.5610,0.1724,0.0000
0.5620,0.1771,0.0000
0.5630,0.1817,0.0000
0.5640,0.1863,0.0000
0.5650,0.1909,0.0000
0.5660,0.1955,0.0000
0.5670,0.2000,0.0000
0.5680,0.2046,0.0000
0.5690,0.2093,0.0000
0.5700,0.2140,0.0000
0.5710,0.2186,0.0000
0.5720,0.2232,0.0000
0.5730,0.2279,0.0000
0.5740,0.2324,0.0000
0.5750,0.2370,0.0000
0.5760,0.2415,0.0000
0.5770,0.2460,0.0000
0.5780,0.2505,0.0000
0.5790,0.2551,0.0000
0.5800,0.2597,0.0000
0.5810,0.2643,0.0000
0.5820,0.2688,0.0000
0.5830,0.2733,0.0000
0.5840,0.2777,0.0000
0.5850,0.2821,0.0000
0.5860,0.2865,0.0000
0.5870,0.2910,0.0000
0.5880,0.2955,0.0000
0.5890,0.2997,0.0000
0.5900,0.3039,0.0000
0.5910,0.3084,0.0000
0.5920,0.3129,0.0000
0.5930,0.3172,0.0000
0.5940,0.3214,0.0000
0.5950,0.3257,0.0000
0.5960,0.3300,0.0000
0.5970,0.3343,0.0000
0.5980,0.3384,0.0000
0.5990,0.3425,0.0000
0.6000,0.3466,0.0000
0.6010,0.3507,0.0000
0.6020,0.3549,0.0000
0.6030,0.3591,0.0000
0.6040,0.3633,0.0000
0.6050,0.3673,0.0000
0.6060,0.3714,0.0000
0.6070,0.3754,0.0000
0.6080,0.3795,0.0000
0.6090,0.3834,0.0000
0.6100,0.3872,0.0000
0.6110,0.3910,0.0000
0.6120,0.3947,0.0000
0.6130,0.3984,0.0000
0.6140,0.4021,0.0000
0.6150,0.4059,0.0000
0.6160,0.4098,0.0000
0.6170,0.4139,0.0000
0.6180,0.4180,0.0000
0.6190,0.4223,0.0000
0.6200,0.4266,0.0000
0.6210,0.4309,0.0000
0.6220,0.4351,0.0000
0.6230,0.4391,0.0000
0.6240,0.4430,0.0000
0.6250,0.4468,0.0000
0.6260,0.4505,0.0000
0.6270,0.4541,0.0000
0.6280,0.4577,0.0000
0.6290,0.4609,0.0000
0.6300,0.4642,0.0000
0.6310,0.4677,0.0000
0.6320,0.4712,0.0000
0.6330,0.4748,0.0000
0.6340,0.4784,0.0000
0.6350,0.4817,0.0000
0.6360,0.4850,0.0000
0.6370,0.4885,0.0000
0.6380,0.4921,0.0000
0.6390,0.4955,0.0000
0.6400,0.4988,0.0000
0.6410,0.5022,0.0000
0.6420,0.5056,0.0000
0.6430,0.5089,0.0000
0.6440,0.5123,0.0000
0.6450,0.5158,0.0000
0.6460,0.5192,0.0000
0.6470,0.5222,0.0000
0.6480,0.5249,0.0000
0.6490,0.5274,0.0000
0.6500,0.5298,0.0000
0.6510,0.5322,0.0000
0.6520,0.5345,0.0000
0.6530,0.5367,0.0000
0.6540,0.5388,0.0000
0.6550,0.5409,0.0000
0.6560,0.5429,0.0000
0.6570,0.5447,0.0000
0.6580,0.5465,0.0000
0.6590,0.5486,0.0000
0.6600,0.5508,0.0000
0.6610,0.5529,0.0000
0.6620,0.5548,0.0000
0.6630,0.5565,0.0000
0.6640,0.5581,0.0000
0.6650,0.5595,0.0000
0.6660,0.5608,0.0000
0.6670,0.5623,0.0000
0.6680,0.5638,0.0000
0.6690,0.5649,0.0000
0.6700,0.5659,0.0000
0.6710,0.5667,0.0000
0.6720,0.5676,0.0000
0.6730,0.5687,0.0000
0.6740,0.5697,0.0000
0.6750,0.5704,0.0000
0.6760,0.5710,0.0000
0.6770,0.5716,0.0000
0.6780,0.5721,0.0000
0.6790,0.5727,0.0000
0.6800,0.5732,0.0000
0.6810,0.5734,0.0000
0.6820,0.5735,0.0000
0.6830,0.5739,0.0000
0.6840,0.5743,0.0000
0.6850,0.5746,0.0000
0.6860,0.5748,0.0000
0.6870,0.5747,0.0000
0.6880,0.5746,0.0000
0.6890,0.5747,0.0000
0.6900,0.5747,0.0000
0.6910,0.5745,0.0000
0.6920,0.5740,0.0000
0.6930,0.5736,0.0000
0.6940,0.5731,0.0000
0.6950,0.5726,0.0000
0.6960,0.5720,0.0000
0.6970,0.5714,0.0000
0.6980,0.5707,0.0000
0.6990,0.5701,0.0000
0.7000,0.5693,0.0000
0.7010,0.5688,0.0000
0.7020,0.5683,0.0000
0.7030,0.5677,0.0000
0.7040,0.5670,0.0000
0.7050,0.5664,0.0000
0.7060,0.5656,0.0000
0.7070,0.5645,0.0000
0.7080,0.5634,0.0000
0.7090,0.5625,0.0000
0.7100,0.5616,0.0000
0.7110,0.5604,0.0000
0.7120,0.5591,0.0000
0.7130,0.5581,0.0000
0.7140,0.5571,0.0000
0.7150,0.5558,0.0000
0.7160,0.5544,0.0000
0.7170,0.5532,0.0000
0.7180,0.5520,0.0000
0.7190,0.5506,0.0000
0.7200,0.5490,0.0000
0.7210,0.5474,0.0000
0.7220,0.5457,0.0000
0.7230,0.5441,0.0000
0.7240,0.5424,0.0000
0.7250,0.5406,0.0000
0.7260,0.5389,0.0000
0.7270,0.5371,0.0000
0.7280,0.5352,0.0000
0.7290,0.5333,0.0000
0.7300,0.5314,0.0000
0.7310,0.5295,0.0000
0.7320,0.5275,0.0000
0.7330,0.5255,0.0000
0.7340,0.5235,0.0000
0.7350,0.5214,0.0000
0.7360,0.5193,0.0000
0.7370,0.5172,0.0000
0.7380,0.5150,0.0000
0.7390,0.5129,0.0000
0.7400,0.5107,0.0000
0.7410,0.5085,0.0000
0.7420,0.5063,0.0000
0.7430,0.5041,0.0000
0.7440,0.5018,0.0000
0.7450,0.4996,0.0000
0.7460,0.4973,0.0000
0.7470,0.4950,0.0000
0.7480,0.4927,0.0000
0.7490,0.4905,0.0000
0.7500,0.4882,0.0000
0.7510,0.4860,0.0000
0.7520,0.4839,0.0000
0.7530,0.4817,0.0000
0.7540,0.4795,0.0000
0.7550,0.4773,0.0000
0.7560,0.4751,0.0000
0.7570,0.4729,0.0000
0.7580,0.4706,0.0000
0.7590,0.4681,0.0000
0.7600,0.4657,0.0000
0.7610,0.4634,0.0000
0.7620,0.4612,0.0000
0.7630,0.4589,0.0000
0.7640,0.4566,0.0000
0.7650,0.4543,0.0000
0.7660,0.4520,0.0000
0.7670,0.4497,0.0000
0.7680,0.4474,0.0000
0.7690,0.4450,0.0000
0.7700,0.4427,0.0000
0.7710,0.4406,0.0000
0.7720,0.4385,0.0000
0.7730,0.4362,0.0000
0.7740,0.4338,0.0000
0.7750,0.4314,0.0000
0.7760,0.4290,0.0000
0.7770,0.4266,0.0000
0.7780,0.4242,0.0000
0.7790,0.4218,0.0000
0.7800,0.4195,0.0000
0.7810,0.4171,0.0000
0.7820,0.4147,0.0000
0.7830,0.4122,0.0000
0.7840,0.4099,0.0000
0.7850,0.4077,0.0000
0.7860,0.4055,0.0000
0.7870,0.4031,0.0000
0.7880,0.4007,0.0000
0.7890,0.3982,0.0000
0.7900,0.3959,0.0000
0.7910,0.3937,0.0000
0.7920,0.3915,0.0000
0.7930,0.3891,0.0000
0.7940,0.3867,0.0000
0.7950,0.3845,0.0000
0.7960,0.3824,0.0000
0.7970,0.3800,0.0000
0.7980,0.3776,0.0000
0.7990,0.3755,0.0000
0.8000,0.3733,0.0000
0.8010,0.3710,0.0000
0.8020,0.3687,0.0000
0.8030,0.3665,0.0000
0.8040,0.3644,0.0000
0.8050,0.3621,0.0000
0.8060,0.3598,0.0000
0.8070,0.3576,0.0000
0.8080,0.3555,0.0000
0.8090,0.3534,0.0000
0.8100,0.3513,0.0000
0.8110,0.3490,0.0000
0.8120,0.3467,0.0000
0.8130,0.3445,0.0000
0.8140,0.3424,0.0000
0.8150,0.3403,0.0000
0.8160,0.3382,0.0000
0.8170,0.3361,0.0000
0.8180,0.3340,0.0000
0.8190,0.3320,0.0000
0.8200,0.3298,0.0000
0.8210,0.3276,0.0000
0.8220,0.3253,0.0000
0.8230,0.3232,0.0000
0.8240,0.3212,0.0000
0.8250,0.3191,0.0000
0.8260,0.3170,0.0000
0.8270,0.3150,0.0000
0.8280,0.3129,0.0000
0.8290,0.3109,0.0000
0.8300,0.3089,0.0000
0.8310,0.3068,0.0000
0.8320,0.3048,0.0000
0.8330,0.3028,0.0000
0.8340,0.3007,0.0000
0.8350,0.2988,0.0000
0.8360,0.2967,0.0000
0.8370,0.2945,0.0000
0.8380,0.2924,0.0000
0.8390,0.2905,0.0000
0.8400,0.2887,0.0000
0.8410,0.2868,0.0000
0.8420,0.2848,0.0000
0.8430,0.2829,0.0000
0.8440,0.2810,0.0000
0.8450,0.2790,0.0000
0.8460,0.2772,0.0000
0.8470,0.2753,0.0000
0.8480,0.2734,0.0000
0.8490,0.2716,0.0000
0.8500,0.2698,0.0000
0.8510,0.2681,0.0000
0.8520,0.2665,0.0000
0.8530,0.2647,0.0000
0.8540,0.2629,0.0000
0.8550,0.2612,0.0000
0.8560,0.2594,0.0000
0.8570,0.2577,0.0000
0.8580,0.2560,0.0000
0.8590,0.2542,0.0000
0.8600,0.2525,0.0000
0.8610,0.2509,0.0000
0.8620,0.2493,0.0000
0.8630,0.2476,0.0000
0.8640,0.2458,0.0000
0.8650,0.2440,0.0000
0.8660,0.2423,0.0000
0.8670,0.2405,0.0000
0.8680,0.2387,0.0000
0.8690,0.2371,0.0000
0.8700,0.2355,0.0000
0.8710,0.2337,0.0000
0.8720,0.2320,0.0000
0.8730,0.2302,0.0000
0.8740,0.2285,0.0000
0.8750,0.2268,0.0000
0.8760,0.2251,0.0000
0.8770,0.2235,0.0000
0.8780,0.2219,0.0000
0.8790,0.2202,0.0000
0.8800,0.2185,0.0000
0.8810,0.2169,0.0000
0.8820,0.2153,0.0000
0.8830,0.2138,0.0000
0.8840,0.2122,0.0000
0.8850,0.2106,0.0000
0.8860,0.2090,0.0000
0.8870,0.2074,0.0000
0.8880,0.2059,0.0000
0.8890,0.2048,0.0000
0.8900,0.2036,0.0000
0.8910,0.2021,0.0000
0.8920,0.2005,0.0000
0.8930,0.1991,0.0000
0.8940,0.1977,0.0000
0.8950,0.1962,0.0000
0.8960,0.1947,0.0000
0.8970,0.1931,0.0000
0.8980,0.1917,0.0000
0.8990,0.1903,0.0000
0.9000,0.1890,0.0000
0.9010,0.1874,0.0000
0.9020,0.1859,0.0000
0.9030,0.1845,0.0000
0.9040,0.1831,0.0000
0.9050,0.1817,0.0000
0.9060,0.1802,0.0000
0.9070,0.1788,0.0000
0.9080,0.1775,0.0000
0.9090,0.1761,0.0000
0.9100,0.1746,0.0000
0.9110,0.1732,0.0000
0.9120,0.1718,0.0000
0.9130,0.1704,0.0000
0.9140,0.1690,0.0000
0.9150,0.1677,0.0000
0.9160,0.1664,0.0000
0.9170,0.1650,0.0000
0.9180,0.1637,0.0000
0.9190,0.1624,0.0000
0.9200,0.1612,0.0000
0.9210,0.1599,0.0000
0.9220,0.1585,0.0000
0.9230,0.1571,0.0000
0.9240,0.1557,0.0000
0.9250,0.1545,0.0000
0.9260,0.1533,0.0000
0.9270,0.1521,0.0000
0.9280,0.1508,0.0000
0.9290,0.1495,0.0000
0.9300,0.1483,0.0000
0.9310,0.1470,0.0000
0.9320,0.1458,0.0000
0.9330,0.1446,0.0000
0.9340,0.1435,0.0000
0.9350,0.1423,0.0000
0.9360,0.1411,0.0000
0.9370,0.1399,0.0000
0.9380,0.1387,0.0000
0.9390,0.1375,0.0000
0.9400,0.1364,0.0000
0.9410,0.1353,0.0000
0.9420,0.1342,0.0000
0.9430,0.1331,0.0000
0.9440,0.1320,0.0000
0.9450,0.1309,0.0000
0.9460,0.1299,0.0000
0.9470,0.1287,0.0000
0.9480,0.1276,0.0000
0.9490,0.1266,0.0000
0.9500,0.1255,0.0000
0.9510,0.1243,0.0000
0.9520,0.1232,0.0000
0.9530,0.1221,0.0000
0.9540,0.1210,0.0000
0.9550,0.1199,0.0000
0.9560,0.1189,0.0000
0.9570,0.1178,0.0000
0.9580,0.1168,0.0000
0.9590,0.1157,0.0000
0.9600,0.1146,0.0000
0.9610,0.1136,0.0000
0.9620,0.1125,0.0000
0.9630,0.1116,0.0000
0.9640,0.1106,0.0000
0.9650,0.1096,0.0000
0.9660,0.1086,0.0000
0.9670,0.1076,0.0000
0.9680,0.1066,0.0000
0.9690,0.1056,0.0000
0.9700,0.1046,0.0000
0.9710,0.1037,0.0000
0.9720,0.1027,0.0000
0.9730,0.1018,0.0000
0.9740,0.1008,0.0000
0.9750,0.0999,0.0000
0.9760,0.0990,0.0000
0.9770,0.0981,0.0000
0.9780,0.0972,0.0000
0.9790,0.0963,0.0000
0.9800,0.0954,0.0000
0.9810,0.0945,0.0000
0.9820,0.0937,0.0000
0.9830,0.0928,0.0000
0.9840,0.0919,0.0000
0.9850,0.0911,0.0000
0.9860,0.0902,0.0000
0.9870,0.0894,0.0000
0.9880,0.0886,0.0000
0.9890,0.0878,0.0000
0.9900,0.0870,0.0000
0.9910,0.0862,0.0000
0.9920,0.0854,0.0000
0.9930,0.0846,0.0000
0.9940,0.0838,0.0000
0.9950,0.0830,0.0000
0.9960,0.0822,0.0000
0.9970,0.0815,0.0000
0.9980,0.0807,0.0000
0.9990,0.0799,0.0000
1.0000,0.0792,0.0000
1.0010,0.0784,0.0000
1.0020,0.0777,0.0000
1.0030,0.0769,0.0000
1.0040,0.0761,0.0000
1.0050,0.0753,0.0000
1.0060,0.0746,0.0000
1.0070,0.0738,0.0000
1.0080,0.0730,0.0000
1.0090,0.0723,0.0000
1.0100,0.0716,0.0000
1.0110,0.0708,0.0000
1.0120,0.0701,0.0000
1.0130,0.0694,0.0000
1.0140,0.0688,0.0000
1.0150,0.0680,0.0000
1.0160,0.0674,0.0000
1.0170,0.0667,0.0000
1.0180,0.0660,0.0000
1.0190,0.0653,0.0000
1.0200,0.0646,0.0000
1.0210,0.0640,0.0000
1.0220,0.0633,0.0000
1.0230,0.0627,0.0000
1.0240,0.0620,0.0000
1.0250,0.0614,0.0000
1.0260,0.0607,0.0000
1.0270,0.0601,0.0000
1.0280,0.0595,0.0000
1.0290,0.0589,0.0000
1.0300,0.0583,0.0000
1.0310,0.0577,0.0000
1.0320,0.0571,0.0000
1.0330,0.0565,0.0000
1.0340,0.0560,0.0000
1.0350,0.0554,0.0000
1.0360,0.0548,0.0000
1.0370,0.0542,0.0000
1.0380,0.0537,0.0000
1.0390,0.0531,0.0000
1.0400,0.0526,0.0000
1.0410,0.0520,0.0000
1.0420,0.0515,0.0000
1.0430,0.0509,0.0000
1.0440,0.0504,0.0000
1.0450,0.0499,0.0000
1.0460,0.0494,0.0000
1.0470,0.0489,0.0000
1.0480,0.0484,0.0000
1.0490,0.0479,0.0000
1.0500,0.0474,0.0000
1.0510,0.0468,0.0000
1.0520,0.0463,0.0000
1.0530,0.0458,0.0000
1.0540,0.0452,0.0000
1.0550,0.0447,0.0000
1.0560,0.0442,0.0000
1.0570,0.0437,0.0000
1.0580,0.0432,0.0000
1.0590,0.0427,0.0000
1.0600,0.0422,0.0000
1.0610,0.0417,0.0000
1.0620,0.0413,0.0000
1.0630,0.0408,0.0000
1.0640,0.0403,0.0000
1.0650,0.0399,0.0000
1.0660,0.0394,0.0000
1.0670,0.0389,0.0000
1.0680,0.0385,0.0000
1.0690,0.0381,0.0000
1.0700,0.0376,0.0000
1.0710,0.0372,0.0000
1.0720,0.0367,0.0000
1.0730,0.0363,0.0000
1.0740,0.0359,0.0000
1.0750,0.0355,0.0000
1.0760,0.0351,0.0000
1.0770,0.0346,0.0000
1.0780,0.0342,0.0000
1.0790,0.0338,0.0000
1.0800,0.0335,0.0000
1.0810,0.0331,0.0000
1.0820,0.0327,0.0000
1.0830,0.0323,0.0000
1.0840,0.0319,0.0000
1.0850,0.0316,0.0000
1.0860,0.0312,0.0000
1.0870,0.0309,0.0000
1.0880,0.0305,0.0000
1.0890,0.0301,0.0000
1.0900,0.0298,0.0000
1.0910,0.0294,0.0000
1.0920,0.0291,0.0000
1.0930,0.0288,0.0000
1.0940,0.0284,0.0000
1.0950,0.0281,0.0000
1.0960,0.0278,0.0000
1.0970,0.0274,0.0000
1.0980,0.0271,0.0000
1.0990,0.0268,0.0000
1.1000,0.0265,0.0000
1.1010,0.0261,0.0000
1.1020,0.0258,0.0000
1.1030,0.0254,0.0000
1.1040,0.0251,0.0000
1.1050,0.0248,0.0000
1.1060,0.0245,0.0000
1.1070,0.0241,0.0000
1.1080,0.0238,0.0000
1.1090,0.0235,0.0000
1.1100,0.0232,0.0000
1.1110,0.0229,0.0000
1.1120,0.0226,0.0000
1.1130,0.0223,0.0000
1.1140,0.0220,0.0000
1.1150,0.0217,0.0000
1.1160,0.0214,0.0000
1.1170,0.0211,0.0000
1.1180,0.0208,0.0000
1.1190,0.0205,0.0000
1.1200,0.0203,0.0000
1.1210,0.0200,0.0000
1.1220,0.0197,0.0000
1.1230,0.0195,0.0000
1.1240,0.0192,0.0000
1.1250,0.0190,0.0000
1.1260,0.0187,0.0000
1.1270,0.0184,0.0000
1.1280,0.0182,0.0000
1.1290,0.0180,0.0000
1.1300,0.0177,0.0000
1.1310,0.0175,0.0000
1.1320,0.0172,0.0000
1.1330,0.0170,0.0000
1.1340,0.0168,0.0000
1.1350,0.0166,0.0000
1.1360,0.0163,0.0000
1.1370,0.0161,0.0000
1.1380,0.0159,0.0000
1.1390,0.0157,0.0000
1.1400,0.0155,0.0000
1.1410,0.0153,0.0000
1.1420,0.0151,0.0000
1.1430,0.0149,0.0000
1.1440,0.0147,0.0000
1.1450,0.0145,0.0000
1.1460,0.0143,0.0000
1.1470,0.0141,0.0000
1.1480,0.0139,0.0000
1.1490,0.0137,0.0000
1.1500,0.0135,0.0000
1.1510,0.0133,0.0000
1.1520,0.0131,0.0000
1.1530,0.0129,0.0000
1.1540,0.0127,0.0000
1.1550,0.0125,0.0000
1.1560,0.0123,0.0000
1.1570,0.0121,0.0000
1.1580,0.0119,0.0000
1.1590,0.0117,0.0000
1.1600,0.0115,0.0000
1.1610,0.0114,0.0000
1.1620,0.0112,0.0000
1.1630,0.0110,0.0000
1.1640,0.0109,0.0000
1.1650,0.0107,0.0000
1.1660,0.0105,0.0000
1.1670,0.0104,0.0000
1.1680,0.0102,0.0000
1.1690,0.0100,0.0000
1.1700,0.0099,0.0000
1.1710,0.0097,0.0000
1.1720,0.0096,0.0000
1.1730,0.0094,0.0000
1.1740,0.0093,0.0000
1.1750,0.0091,0.0000
1.1760,0.0090,0.0000
1.1770,0.0088,0.0000
1.1780,0.0087,0.0000
1.1790,0.0086,0.0000
1.1800,0.0084,0.0000
1.1810,0.0083,0.0000
1.1820,0.0082,0.0000
1.1830,0.0080,0.0000
1.1840,0.0079,0.0000
1.1850,0.0078,0.0000
1.1860,0.0077,0.0000
1.1870,0.0076,0.0000
1.1880,0.0074,0.0000
1.1890,0.0073,0.0000
1.1900,0.0072,0.0000
1.1910,0.0071,0.0000
1.1920,0.0070,0.0000
1.1930,0.0069,0.0000
1.1940,0.0068,0.0000
1.1950,0.0067,0.0000
1.1960,0.0066,0.0000
1.1970,0.0065,0.0000
1.1980,0.0064,0.0000
1.1990,0.0063,0.0000
1.2000,0.0062,0.0000
1.2010,0.0061,0.0000
1.2020,0.0060,0.0000
1.2030,0.0058,0.0000
1.2040,0.0058,0.0000
1.2050,0.0056,0.0000
1.2060,0.0055,0.0000
1.2070,0.0054,0.0000
1.2080,0.0054,0.0000
1.2090,0.0052,0.0000
1.2100,0.0052,0.0000
1.2110,0.0051,0.0000
1.2120,0.0050,0.0000
1.2130,0.0049,0.0000
1.2140,0.0048,0.0000
1.2150,0.0047,0.0000
1.2160,0.0046,0.0000
1.2170,0.0046,0.0000
1.2180,0.0045,0.0000
1.2190,0.0044,0.0000
1.2200,0.0043,0.0000
1.2210,0.0043,0.0000
1.2220,0.0042,0.0000
1.2230,0.0041,0.0000
1.2240,0.0040,0.0000
1.2250,0.0040,0.0000
1.2260,0.0039,0.0000
1.2270,0.0038,0.0000
1.2280,0.0038,0.0000
1.2290,0.0037,0.0000
1.2300,0.0037,0.0000
1.2310,0.0036,0.0000
1.2320,0.0035,0.0000
1.2330,0.0035,0.0000
1.2340,0.0034,0.0000
1.2350,0.0034,0.0000
1.2360,0.0033,0.0000
1.2370,0.0033,0.0000
1.2380,0.0032,0.0000
1.2390,0.0032,0.0000
1.2400,0.0031,0.0000
1.2410,0.0031,0.0000
1.2420,0.0030,0.0000
1.2430,0.0030,0.0000
1.2440,0.0030,0.0000
1.2450,0.0029,0.0000
1.2460,0.0029,0.0000
1.2470,0.0028,0.0000
1.2480,0.0028,0.0000
1.2490,0.0028,0.0000
1.2500,0.0027,0.0000
1.2510,0.0027,0.0000
1.2520,0.0026,0.0000
1.2530,0.0026,0.0000
1.2540,0.0026,0.0000
1.2550,0.0025,0.0000
1.2560,0.0025,0.0000
1.2570,0.0025,0.0000
1.2580,0.0024,0.0000
1.2590,0.0024,0.0000
1.2600,0.0023,0.0000
1.2610,0.0023,0.0000
1.2620,0.0023,0.0000
1.2630,0.0023,0.0000
1.2640,0.0022,0.0000
1.2650,0.0022,0.0000
1.2660,0.0022,0.0000
1.2670,0.0022,0.0000
1.2680,0.0021,0.0000
1.2690,0.0021,0.0000
1.2700,0.0021,0.0000
1.2710,0.0021,0.0000
1.2720,0.0021,0.0000
1.2730,0.0020,0.0000
1.2740,0.0020,0.0000
1.2750,0.0020,0.0000
1.2760,0.0020,0.0000
1.2770,0.0020,0.0000
1.2780,0.0020,0.0000
1.2790,0.0019,0.0000
1.2800,0.0019,0.0000
1.2810,0.0019,0.0000
1.2820,0.0019,0.0000
1.2830,0.0019,0.0000
1.2840,0.0019,0.0000
1.2850,0.0019,0.0000
1.2860,0.0019,0.0000
1.2870,0.0019,0.0000
1.2880,0.0019,0.0000
1.2890,0.0019,0.0000
1.2900,0.0019,0.0000
1.2910,0.0019,0.0000
1.2920,0.0019,0.0000
1.2930,0.0019,0.0000
1.2940,0.0019,0.0000
1.2950,0.0019,0.0000
1.2960,0.0019,0.0000
1.2970,0.0019,0.0000
1.2980,0.0019,0.0000
1.2990,0.0019,0.0000
1.3000,0.0019,0.0000
1.3010,0.0019,0.0000
1.3020,0.0019,0.0000
1.3030,0.0019,0.0000
1.3040,0.0019,0.0000
1.3050,0.0019,0.0000
1.3060,0.0019,0.0000
1.3070,0.0019,0.0000
1.3080,0.0019,0.0000
1.3090,0.0020,0.0000
1.3100,0.0020,0.0000
1.3110,0.0020,0.0000
1.3120,0.0020,0.0000
1.3130,0.0020,0.0000
1.3140,0.0020,0.0000
1.3150,0.0020,0.0000
1.3160,0.0020,0.0000
1.3170,0.0020,0.0000
1.3180,0.0021,0.0000
1.3190,0.0021,0.0000
1.3200,0.0021,0.0000
1.3210,0.0021,0.0000
1.3220,0.0021,0.0000
1.3230,0.0021,0.0000
1.3240,0.0022,0.0000
1.3250,0.0022,0.0000
1.3260,0.0022,0.0000
1.3270,0.0022,0.0000
1.3280,0.0022,0.0000
1.3290,0.0022,0.0000
1.3300,0.0023,0.0000
1.3310,0.0023,0.0000
1.3320,0.0023,0.0000
1.3330,0.0023,0.0000
1.3340,0.0024,0.0000
1.3350,0.0024,0.0000
1.3360,0.0024,0.0000
1.3370,0.0024,0.0000
1.3380,0.0025,0.0000
1.3390,0.0025,0.0000
1.3400,0.0025,0.0000
1.3410,0.0026,0.0000
1.3420,0.0026,0.0000
1.3430,0.0026,0.0000
1.3440,0.0026,0.0000
1.3450,0.0027,0.0000
1.3460,0.0027,0.0000
1.3470,0.0027,0.0000
1.3480,0.0028,0.0000
1.3490,0.0028,0.0000
1.3500,0.0028,0.0000
1.3510,0.0029,0.0000
1.3520,0.0029,0.0000
1.3530,0.0029,0.0000
1.3540,0.0030,0.0000
1.3550,0.0030,0.0000
1.3560,0.0030,0.0000
1.3570,0.0030,0.0000
1.3580,0.0031,0.0000
1.3590,0.0031,0.0000
1.3600,0.0031,0.0000
1.3610,0.0032,0.0000
1.3620,0.0032,0.0000
1.3630,0.0032,0.0000
1.3640,0.0033,0.0000
1.3650,0.0033,0.0000
1.3660,0.0033,0.0000
1.3670,0.0034,0.0000
1.3680,0.0034,0.0000
1.3690,0.0034,0.0000
1.3700,0.0035,0.0000
1.3710,0.0035,0.0000
1.3720,0.0036,0.0000
1.3730,0.0036,0.0000
1.3740,0.0036,0.0000
1.3750,0.0037,0.0000
1.3760,0.0037,0.0000
1.3770,0.0037,0.0000
1.3780,0.0038,0.0000
1.3790,0.0038,0.0000
1.3800,0.0039,0.0000
1.3810,0.0039,0.0000
1.3820,0.0039,0.0000
1.3830,0.0040,0.0000
1.3840,0.0040,0.0000
1.3850,0.0041,0.0000
1.3860,0.0041,0.0000
1.3870,0.0042,0.0000
1.3880,0.0042,0.0000
1.3890,0.0043,0.0000
1.3900,0.0043,0.0000
1.3910,0.0043,0.0000
1.3920,0.0044,0.0000
1.3930,0.0044,0.0000
1.3940,0.0045,0.0000
1.3950,0.0045,0.0000
1.3960,0.0046,0.0000
1.3970,0.0046,0.0000
1.3980,0.0047,0.0000
1.3990,0.0047,0.0000
1.4000,0.0048,0.0000
1.4010,0.0048,0.0000
1.4020,0.0048,0.0000
1.4030,0.0049,0.0000
1.4040,0.0049,0.0000
1.4050,0.0050,0.0000
1.4060,0.0050,0.0000
1.4070,0.0051,0.0000
1.4080,0.0051,0.0000
1.4090,0.0052,0.0000
1.4100,0.0052,0.0000
1.4110,0.0052,0.0000
1.4120,0.0053,0.0000
1.4130,0.0054,0.0000
1.4140,0.0054,0.0000
1.4150,0.0054,0.0000
1.4160,0.0055,0.0000
1.4170,0.0055,0.0000
1.4180,0.0056,0.0000
1.4190,0.0056,0.0000
1.4200,0.0057,0.0000
1.4210,0.0057,0.0000
1.4220,0.0058,0.0000
1.4230,0.0058,0.0000
1.4240,0.0059,0.0000
1.4250,0.0059,0.0000
1.4260,0.0060,0.0000
1.4270,0.0060,0.0000
1.4280,0.0061,0.0000
1.4290,0.0061,0.0000
1.4300,0.0062,0.0000
1.4310,0.0062,0.0000
1.4320,0.0063,0.0000
1.4330,0.0063,0.0000
1.4340,0.0064,0.0000
1.4350,0.0065,0.0000
1.4360,0.0065,0.0000
1.4370,0.0066,0.0000
1.4380,0.0066,0.0000
1.4390,0.0066,0.0000
1.4400,0.0067,0.0000
1.4410,0.0068,0.0000
1.4420,0.0068,0.0000
1.4430,0.0069,0.0000
1.4440,0.0069,0.0000
1.4450,0.0070,0.0000
1.4460,0.0070,0.0000
1.4470,0.0071,0.0000
1.4480,0.0071,0.0000
1.4490,0.0072,0.0000
